20,    channel 20 SRF extracted from pub.rar (FY3D_MERSI_SRF_CH20_Pub.txt) (received October 2018)
Number of data points:
403
Wavenumber (cm-1)   Filter response
     2492.522400       0.000000
     2493.143900       0.000000
     2493.765600       0.000000
     2495.010000       0.009183
     2495.632600       0.000000
     2496.255600       0.009183
     2496.878900       0.009183
     2497.502500       0.009183
     2498.126400       0.010150
     2498.750600       0.010150
     2499.375200       0.009183
     2500.000000       0.009667
     2500.625200       0.010150
     2501.250600       0.009667
     2501.876400       0.010150
     2502.502500       0.011600
     2503.128900       0.011116
     2503.755600       0.010633
     2504.382700       0.011116
     2505.010000       0.011600
     2505.637700       0.013050
     2506.265700       0.013533
     2506.894000       0.012566
     2507.522600       0.017061
     2508.151500       0.014016
     2508.780700       0.014983
     2509.410300       0.015950
     2510.040200       0.014500
     2510.670300       0.015950
     2511.300900       0.016916
     2511.931700       0.016916
     2512.562800       0.015950
     2513.194300       0.017883
     2513.826000       0.017883
     2514.458100       0.018366
     2515.090500       0.019816
     2515.723300       0.020300
     2516.356300       0.020300
     2516.989700       0.019333
     2517.623400       0.020783
     2518.257400       0.021266
     2518.891700       0.021750
     2519.526300       0.022716
     2520.161300       0.024166
     2520.796600       0.024650
     2521.432200       0.025133
     2522.068100       0.025616
     2522.704300       0.026100
     2523.340900       0.027066
     2523.977800       0.028516
     2524.615000       0.028516
     2525.252500       0.029966
     2525.890400       0.030449
     2526.528500       0.031899
     2527.167000       0.033833
     2527.805900       0.033833
     2528.445000       0.035766
     2529.084500       0.036733
     2529.724300       0.038183
     2530.364400       0.040116
     2531.004800       0.040599
     2531.645600       0.041566
     2532.286700       0.043016
     2532.928100       0.044466
     2533.569800       0.045916
     2534.211900       0.048816
     2534.854200       0.050266
     2535.497000       0.051716
     2536.140000       0.054132
     2536.783400       0.057032
     2537.427000       0.058482
     2538.071100       0.059449
     2538.715400       0.062349
     2539.360100       0.065732
     2540.005100       0.067182
     2540.650400       0.070565
     2541.296100       0.072499
     2541.942000       0.076849
     2542.588400       0.079749
     2543.235000       0.083132
     2543.882000       0.086515
     2544.529300       0.088932
     2545.176900       0.093282
     2545.824800       0.099565
     2546.473100       0.101015
     2547.121800       0.103190
     2547.770700       0.105365
     2548.420000       0.110198
     2549.069600       0.115031
     2549.719500       0.119865
     2550.369800       0.125181
     2551.020400       0.130981
     2551.671300       0.136781
     2552.322600       0.143548
     2552.974200       0.151281
     2553.626100       0.158047
     2554.278400       0.163364
     2554.931000       0.171097
     2555.584000       0.179797
     2556.237200       0.187530
     2556.890800       0.195747
     2557.544800       0.203480
     2558.199000       0.213146
     2558.853600       0.222813
     2559.508600       0.233929
     2560.163900       0.245046
     2560.819500       0.253746
     2561.475400       0.263896
     2562.131700       0.275979
     2562.788300       0.289029
     2563.445300       0.301595
     2564.102600       0.315128
     2564.760200       0.331078
     2565.418200       0.342678
     2566.076500       0.360077
     2566.735100       0.371677
     2567.394100       0.386660
     2568.053400       0.404060
     2568.713100       0.419043
     2569.373100       0.440309
     2570.033400       0.450459
     2570.694100       0.474142
     2571.355100       0.487675
     2572.016500       0.505558
     2572.678200       0.526825
     2573.340200       0.537458
     2574.002600       0.558241
     2574.665300       0.575157
     2575.328400       0.592073
     2575.991800       0.610923
     2576.655500       0.630739
     2577.319600       0.648139
     2577.984000       0.665056
     2578.648800       0.680039
     2579.313900       0.700822
     2579.979400       0.717255
     2580.645200       0.732721
     2581.311300       0.747704
     2581.977800       0.767521
     2582.644600       0.790237
     2583.311800       0.797487
     2583.979300       0.812470
     2584.647200       0.827936
     2585.315400       0.840019
     2585.984000       0.854519
     2586.652900       0.866602
     2587.322100       0.888835
     2587.991700       0.887869
     2588.661700       0.903818
     2589.332000       0.908652
     2590.002600       0.919768
     2590.673600       0.929435
     2591.344900       0.935718
     2592.016600       0.945384
     2592.688600       0.954084
     2593.361000       0.956501
     2594.033700       0.959401
     2594.706800       0.983567
     2595.380200       0.973900
     2596.054000       0.975350
     2596.728100       0.982600
     2597.402600       0.986467
     2598.077400       0.987434
     2598.752600       0.989850
     2599.428100       0.990817
     2600.104000       0.989367
     2600.780200       0.995650
     2601.456800       0.996133
     2602.133700       0.992750
     2602.811000       0.996617
     2603.488700       0.994683
     2604.166700       0.991783
     2604.845000       1.000000
     2605.523700       0.994200
     2606.202800       0.988884
     2606.882200       0.984050
     2607.561900       0.984050
     2608.242000       0.986950
     2608.922500       0.981150
     2609.603300       0.982600
     2610.284500       0.979700
     2610.966100       0.965684
     2611.647900       0.977767
     2612.330200       0.977284
     2613.012800       0.972450
     2613.695800       0.967134
     2614.379100       0.970034
     2615.062800       0.963751
     2615.746800       0.967617
     2616.431200       0.972934
     2617.115900       0.960851
     2617.801000       0.960367
     2618.486500       0.958917
     2619.172300       0.945384
     2619.858500       0.953601
     2620.545100       0.962784
     2621.232000       0.950218
     2621.919200       0.951667
     2622.606900       0.951184
     2623.294900       0.950218
     2623.983200       0.957951
     2624.671900       0.948284
     2625.361000       0.950701
     2626.050400       0.946351
     2626.740200       0.958434
     2627.430400       0.948284
     2628.120900       0.948768
     2628.811800       0.949734
     2629.503000       0.946351
     2630.194600       0.947801
     2630.886600       0.946351
     2631.578900       0.946351
     2632.271700       0.945868
     2632.964700       0.945868
     2633.658200       0.950701
     2634.351900       0.952151
     2635.046100       0.951184
     2635.740600       0.953117
     2636.435500       0.948768
     2637.130800       0.938618
     2637.826400       0.950701
     2638.522400       0.954567
     2639.218800       0.949251
     2639.915500       0.957951
     2640.612600       0.966167
     2641.310100       0.956501
     2642.007900       0.957467
     2642.706100       0.966651
     2643.404700       0.956017
     2644.103600       0.955534
     2644.803000       0.967134
     2645.502600       0.954567
     2646.202700       0.957467
     2646.903100       0.972450
     2647.603900       0.957951
     2648.305100       0.957951
     2649.006600       0.963751
     2649.708500       0.960367
     2650.410800       0.958917
     2651.113500       0.960367
     2651.816500       0.961334
     2652.519900       0.968584
     2653.223700       0.962301
     2653.927800       0.962784
     2654.632300       0.963751
     2655.337200       0.965201
     2656.042500       0.963267
     2656.748100       0.959401
     2657.454200       0.962301
     2658.160600       0.964234
     2658.867300       0.960851
     2659.574500       0.961817
     2660.282000       0.962301
     2660.989900       0.961817
     2661.698200       0.962784
     2662.406800       0.956984
     2663.115800       0.952634
     2663.825300       0.953601
     2664.535000       0.953117
     2665.245200       0.947801
     2665.955700       0.945868
     2666.666700       0.960367
     2667.378000       0.956984
     2668.089600       0.947318
     2668.801700       0.943451
     2669.514100       0.941034
     2670.227000       0.938618
     2670.940200       0.938618
     2671.653800       0.930401
     2672.367700       0.928468
     2673.082100       0.925085
     2673.796800       0.919285
     2674.511900       0.911551
     2675.227400       0.908168
     2675.943300       0.900435
     2676.659500       0.894152
     2677.376200       0.893185
     2678.093200       0.891735
     2678.810600       0.875302
     2679.528400       0.868052
     2680.246600       0.874819
     2680.965100       0.854036
     2681.684100       0.844853
     2682.403400       0.837119
     2683.123200       0.833253
     2683.843300       0.815370
     2684.563800       0.802320
     2685.284600       0.800870
     2686.005900       0.788304
     2686.727600       0.779120
     2687.449600       0.757854
     2688.172000       0.747221
     2688.894900       0.734654
     2689.618100       0.726921
     2690.341700       0.706622
     2691.065700       0.699372
     2691.790000       0.686322
     2692.514800       0.668922
     2693.240000       0.652006
     2693.965500       0.641373
     2694.691500       0.619623
     2695.417800       0.605123
     2696.144500       0.589174
     2696.871600       0.572257
     2697.599100       0.560657
     2698.327000       0.546641
     2699.055300       0.524891
     2699.784000       0.514741
     2700.513100       0.499758
     2701.242600       0.480425
     2701.972400       0.464959
     2702.702700       0.451909
     2703.433400       0.435959
     2704.164400       0.421943
     2704.895900       0.410343
     2705.627700       0.391977
     2706.359900       0.382310
     2707.092600       0.363461
     2707.825600       0.351377
     2708.559000       0.338811
     2709.292900       0.325278
     2710.027100       0.315128
     2710.761700       0.301112
     2711.496700       0.288062
     2712.232200       0.274529
     2712.968000       0.262929
     2713.704200       0.252779
     2714.440800       0.242629
     2715.177800       0.232479
     2715.915300       0.222330
     2716.653100       0.213630
     2717.391300       0.203480
     2718.129900       0.194297
     2718.869000       0.187047
     2719.608400       0.177864
     2720.348200       0.169647
     2721.088400       0.162397
     2721.829100       0.154181
     2722.570100       0.146448
     2723.311500       0.141614
     2724.053400       0.132431
     2724.795600       0.126148
     2725.538300       0.121798
     2726.281400       0.115998
     2727.024800       0.110681
     2727.768700       0.105365
     2728.513000       0.100048
     2729.257600       0.095698
     2730.002700       0.091832
     2730.748200       0.086999
     2731.494100       0.081682
     2732.240400       0.078782
     2732.987200       0.074915
     2733.734300       0.071049
     2734.481800       0.068632
     2735.229800       0.065732
     2735.978100       0.061866
     2736.726900       0.058482
     2737.476000       0.056549
     2738.225600       0.053166
     2738.975600       0.050266
     2739.726000       0.048816
     2740.476800       0.046883
     2741.228100       0.044466
     2741.979700       0.042533
     2742.731800       0.039633
     2743.484200       0.038183
     2744.237100       0.036249
     2744.990400       0.034799
     2745.744100       0.033833
     2746.498200       0.031899
     2747.252700       0.030933
     2748.007700       0.029483
     2748.763100       0.028033
     2749.518800       0.026583
     2750.275000       0.026100
     2751.031600       0.025616
     2751.788700       0.023683
     2752.546100       0.021750
     2753.304000       0.021750
     2754.062200       0.020300
     2754.820900       0.020300
     2755.580000       0.018366
     2756.339600       0.018366
     2757.099500       0.016916
     2757.859900       0.016916
     2758.620700       0.016433
     2759.381900       0.015950
     2760.143500       0.015950
     2760.905600       0.014983
     2761.668000       0.013533
     2762.430900       0.013050
     2763.194300       0.012566
     2763.958000       0.012566
     2764.722100       0.011600
     2765.486700       0.010633
     2766.251700       0.010633
     2767.017200       0.011600
     2767.783000       0.010150
     2768.549300       0.010150
     2769.316000       0.009183
     2770.083100       0.000000
     2770.850700       0.000000
