6,    channel 6 SRF extracted from pub.rar (FY3D_MERSI_SRF_CH06_Pub.txt) (received October 2018)
Number of data points:
143
Wavenumber (cm-1)   Filter response
     5847.953200       0.009492
     5851.375100       0.009967
     5854.800900       0.009018
     5858.230800       0.012814
     5861.664700       0.015187
     5865.102600       0.015662
     5868.544600       0.018035
     5871.990600       0.021357
     5875.440700       0.030375
     5878.894800       0.027053
     5882.352900       0.032273
     5885.815200       0.035596
     5889.281500       0.040816
     5892.751900       0.045088
     5896.226400       0.052682
     5899.705000       0.058851
     5903.187700       0.065021
     5906.674500       0.073090
     5910.165500       0.084006
     5913.660600       0.095871
     5917.159800       0.104888
     5920.663100       0.121500
     5924.170600       0.131941
     5927.682300       0.149502
     5931.198100       0.163265
     5934.718100       0.189369
     5938.242300       0.212150
     5941.770600       0.239203
     5945.303200       0.259136
     5948.840000       0.288562
     5952.381000       0.318937
     5955.926100       0.340769
     5959.475600       0.390128
     5963.029200       0.412435
     5966.587100       0.457048
     5970.149300       0.488372
     5973.715700       0.558614
     5977.286300       0.558614
     5980.861200       0.574751
     5984.440500       0.610821
     5988.024000       0.665876
     5991.611700       0.684860
     5995.203800       0.701471
     5998.800200       0.749407
     6002.401000       0.772188
     6006.006000       0.798766
     6009.615400       0.821073
     6013.229100       0.842430
     6016.847200       0.844803
     6020.469600       0.880873
     6024.096400       0.894162
     6027.727500       0.912672
     6031.363100       0.924063
     6035.003000       0.935453
     6038.647300       0.936402
     6042.296100       0.957760
     6045.949200       0.965354
     6049.606800       0.974371
     6053.268800       0.975795
     6056.935200       0.982439
     6060.606100       0.972473
     6064.281400       0.977219
     6067.961200       0.976744
     6071.645400       0.995729
     6075.334100       0.991932
     6079.027400       1.000000
     6082.725100       0.995729
     6086.427300       0.996203
     6090.134000       0.992406
     6093.845200       0.991932
     6097.561000       0.973897
     6101.281300       0.971998
     6105.006100       0.958234
     6108.735500       0.944471
     6112.469400       0.949692
     6116.208000       0.929758
     6119.951000       0.922639
     6123.698700       0.907926
     6127.451000       0.889416
     6131.207800       0.861889
     6134.969300       0.856668
     6138.735400       0.838633
     6142.506100       0.812530
     6146.281500       0.789748
     6150.061500       0.769815
     6153.846200       0.743711
     6157.635500       0.734694
     6161.429500       0.699098
     6165.228100       0.667299
     6169.031500       0.635501
     6172.839500       0.610346
     6176.652300       0.584243
     6180.469700       0.553393
     6184.291900       0.521595
     6188.118800       0.492644
     6191.950500       0.465591
     6195.786900       0.431894
     6199.628000       0.401044
     6203.473900       0.377314
     6207.324600       0.345990
     6211.180100       0.314665
     6215.040400       0.288562
     6218.905500       0.265306
     6222.775400       0.231609
     6226.650100       0.211675
     6230.529600       0.193166
     6234.414000       0.165638
     6238.303200       0.150925
     6242.197300       0.131467
     6246.096200       0.118178
     6250.000000       0.102041
     6253.908700       0.092549
     6257.822300       0.082107
     6261.740800       0.075937
     6265.664200       0.070242
     6269.592500       0.065496
     6273.525700       0.061224
     6277.463900       0.057902
     6281.407000       0.052207
     6285.355100       0.048885
     6289.308200       0.046512
     6293.266200       0.038918
     6297.229200       0.037494
     6301.197200       0.033697
     6305.170200       0.030850
     6309.148300       0.027053
     6313.131300       0.023256
     6317.119400       0.018510
     6321.112500       0.014238
     6325.110700       0.012340
     6329.113900       0.010441
     6333.122200       0.000000
     6337.135600       0.000000
     6341.154100       0.000000
     6345.177700       0.000000
     6349.206300       0.000000
     6353.240200       0.000000
     6357.279100       0.000000
     6361.323200       0.000000
     6365.372400       0.009018
     6369.426800       0.000000
     6373.486300       0.000000
     6377.551000       0.000000
