16,    channel 16 SRF extracted from pub.rar (FY3D_MERSI_SRF_CH16_Pub.txt) (received October 2018)
Number of data points:
103
Wavenumber (cm-1)   Filter response
    10746.910300       0.000000
    10752.688200       0.000000
    10758.472300       0.000000
    10764.262600       0.009666
    10770.059200       0.011424
    10775.862100       0.013181
    10781.671200       0.014938
    10787.486500       0.016696
    10793.308100       0.019332
    10799.136100       0.021968
    10804.970300       0.025483
    10810.810800       0.028998
    10816.657700       0.034271
    10822.510800       0.039543
    10828.370300       0.046573
    10834.236200       0.053603
    10840.108400       0.064148
    10845.987000       0.073814
    10851.871900       0.089631
    10857.763300       0.104569
    10863.661100       0.127417
    10869.565200       0.150264
    10875.475800       0.182777
    10881.392800       0.215290
    10887.316300       0.257469
    10893.246200       0.299649
    10899.182600       0.352373
    10905.125400       0.405097
    10911.074700       0.465729
    10917.030600       0.526362
    10922.992900       0.589631
    10928.961700       0.652900
    10934.937100       0.710018
    10940.919000       0.766257
    10946.907500       0.811072
    10952.902500       0.855009
    10958.904100       0.887522
    10964.912300       0.919156
    10970.927000       0.937610
    10976.948400       0.955185
    10982.976400       0.970123
    10989.011000       0.985062
    10995.052200       0.988576
    11001.100100       0.991213
    11007.154700       0.995606
    11013.215900       1.000000
    11019.283700       0.997364
    11025.358300       0.994728
    11031.439600       0.994728
    11037.527600       0.994728
    11043.622300       0.992091
    11049.723800       0.988576
    11055.832000       0.980668
    11061.946900       0.972759
    11068.068600       0.964851
    11074.197100       0.956942
    11080.332400       0.951670
    11086.474500       0.945518
    11092.623400       0.929701
    11098.779100       0.913884
    11104.941700       0.893673
    11111.111100       0.872583
    11117.287400       0.846221
    11123.470500       0.818981
    11129.660500       0.778559
    11135.857500       0.737258
    11142.061300       0.689807
    11148.272000       0.642355
    11154.489700       0.588752
    11160.714300       0.535149
    11166.945800       0.483304
    11173.184400       0.431459
    11179.429800       0.382250
    11185.682300       0.333040
    11191.941800       0.293497
    11198.208300       0.253076
    11204.481800       0.224077
    11210.762300       0.195079
    11217.049900       0.169596
    11223.344600       0.143234
    11229.646300       0.124780
    11235.955100       0.105448
    11242.270900       0.093146
    11248.593900       0.079965
    11254.924000       0.069420
    11261.261300       0.058875
    11267.605600       0.050967
    11273.957200       0.043058
    11280.315800       0.037786
    11286.681700       0.031634
    11293.054800       0.027241
    11299.435000       0.022847
    11305.822500       0.020211
    11312.217200       0.017575
    11318.619100       0.015817
    11325.028300       0.014060
    11331.444800       0.013181
    11337.868500       0.011424
    11344.299500       0.010545
    11350.737800       0.000000
    11357.183400       0.000000
    11363.636400       0.000000
    11370.096600       0.000000
