15,    channel 15 SRF extracted from pub.rar (FY3D_MERSI_SRF_CH15_Pub.txt) (received October 2018)
Number of data points:
112
Wavenumber (cm-1)   Filter response
    11191.941800       0.000000
    11198.208300       0.009113
    11204.481800       0.010328
    11210.762300       0.011239
    11217.049900       0.011847
    11223.344600       0.013669
    11229.646300       0.014581
    11235.955100       0.016100
    11242.270900       0.017922
    11248.593900       0.019441
    11254.924000       0.021871
    11261.261300       0.024605
    11267.605600       0.027339
    11273.957200       0.030377
    11280.315800       0.035237
    11286.681700       0.040097
    11293.054800       0.045869
    11299.435000       0.052248
    11305.822500       0.058931
    11312.217200       0.069259
    11318.619100       0.079587
    11325.028300       0.094471
    11331.444800       0.109052
    11337.868500       0.126671
    11344.299500       0.151580
    11350.737800       0.174970
    11357.183400       0.205954
    11363.636400       0.239368
    11370.096600       0.278858
    11376.564300       0.314702
    11383.039300       0.365735
    11389.521600       0.406744
    11396.011400       0.461118
    11402.508600       0.506987
    11409.013100       0.557716
    11415.525100       0.603584
    11422.044500       0.657351
    11428.571400       0.701094
    11435.105800       0.736027
    11441.647600       0.751823
    11448.196900       0.799514
    11454.753700       0.821081
    11461.318100       0.839915
    11467.889900       0.856926
    11474.469300       0.871203
    11481.056300       0.869988
    11487.650800       0.879405
    11494.252900       0.895808
    11500.862600       0.906744
    11507.479900       0.928007
    11514.104800       0.922843
    11520.737300       0.947448
    11527.377500       0.937728
    11534.025400       0.947448
    11540.680900       0.952612
    11547.344100       0.976914
    11554.015000       0.969623
    11560.693600       0.977217
    11567.380000       1.000000
    11574.074100       0.985723
    11580.775900       0.986330
    11587.485500       0.995444
    11594.202900       0.989976
    11600.928100       0.986330
    11607.661100       0.995747
    11614.401900       0.979040
    11621.150500       0.955043
    11627.907000       0.942284
    11634.671300       0.926185
    11641.443500       0.896416
    11648.223600       0.851154
    11655.011700       0.802248
    11661.807600       0.770352
    11668.611400       0.725091
    11675.423200       0.673755
    11682.243000       0.620595
    11689.070700       0.556197
    11695.906400       0.518530
    11702.750100       0.468408
    11709.601900       0.416160
    11716.461600       0.376974
    11723.329400       0.330802
    11730.205300       0.298299
    11737.089200       0.261239
    11743.981200       0.236330
    11750.881300       0.209903
    11757.789500       0.185601
    11764.705900       0.162819
    11771.630400       0.143074
    11778.563000       0.123937
    11785.503800       0.107533
    11792.452800       0.095383
    11799.410000       0.082321
    11806.375400       0.071081
    11813.349100       0.062576
    11820.331000       0.054070
    11827.321100       0.046780
    11834.319500       0.040401
    11841.326200       0.035844
    11848.341200       0.031288
    11855.364600       0.027339
    11862.396200       0.024301
    11869.436200       0.021567
    11876.484600       0.018834
    11883.541300       0.017011
    11890.606400       0.015188
    11897.680000       0.013973
    11904.761900       0.012151
    11911.852300       0.011239
    11918.951100       0.010632
    11926.058400       0.009721
    11933.174200       0.000000
