4,    channel 4 SRF extracted from pub.rar (FY3D_MERSI_SRF_CH04_Pub.txt) (received October 2018)
Number of data points:
195
Wavenumber (cm-1)   Filter response
    10845.987000       0.009726
    10851.871900       0.009726
    10857.763300       0.009726
    10863.661100       0.009726
    10869.565200       0.009726
    10875.475800       0.010610
    10881.392800       0.011494
    10887.316300       0.011494
    10893.246200       0.011494
    10899.182600       0.012378
    10905.125400       0.013263
    10911.074700       0.014147
    10917.030600       0.014147
    10922.992900       0.015915
    10928.961700       0.016799
    10934.937100       0.017683
    10940.919000       0.017683
    10946.907500       0.019452
    10952.902500       0.021220
    10958.904100       0.022104
    10964.912300       0.022989
    10970.927000       0.024757
    10976.948400       0.025641
    10982.976400       0.029178
    10989.011000       0.031830
    10995.052200       0.034483
    11001.100100       0.037135
    11007.154700       0.038904
    11013.215900       0.040672
    11019.283700       0.045977
    11025.358300       0.051282
    11031.439600       0.055703
    11037.527600       0.059240
    11043.622300       0.065429
    11049.723800       0.071618
    11055.832000       0.078691
    11061.946900       0.085765
    11068.068600       0.094607
    11074.197100       0.103448
    11080.332400       0.114943
    11086.474500       0.126437
    11092.623400       0.139699
    11098.779100       0.152962
    11104.941700       0.167993
    11111.111100       0.183024
    11117.287400       0.201592
    11123.470500       0.219275
    11129.660500       0.240495
    11135.857500       0.261715
    11142.061300       0.279399
    11148.272000       0.297082
    11154.489700       0.320955
    11160.714300       0.344828
    11166.945800       0.368700
    11173.184400       0.392573
    11179.429800       0.421751
    11185.682300       0.450044
    11191.941800       0.473033
    11198.208300       0.496021
    11204.481800       0.519010
    11210.762300       0.541998
    11217.049900       0.562334
    11223.344600       0.582670
    11229.646300       0.606543
    11235.955100       0.629531
    11242.270900       0.645447
    11248.593900       0.661362
    11254.924000       0.676393
    11261.261300       0.691424
    11267.605600       0.710875
    11273.957200       0.730327
    11280.315800       0.739169
    11286.681700       0.747126
    11293.054800       0.765694
    11299.435000       0.783378
    11305.822500       0.801945
    11312.217200       0.820513
    11318.619100       0.831123
    11325.028300       0.841733
    11331.444800       0.850575
    11337.868500       0.859416
    11344.299500       0.861185
    11350.737800       0.862069
    11357.183400       0.870911
    11363.636400       0.878868
    11370.096600       0.886826
    11376.564300       0.893899
    11383.039300       0.901857
    11389.521600       0.909814
    11396.011400       0.916004
    11402.508600       0.921309
    11409.013100       0.926614
    11415.525100       0.931034
    11422.044500       0.936340
    11428.571400       0.941645
    11435.105800       0.946950
    11441.647600       0.951370
    11448.196900       0.961096
    11454.753700       0.969938
    11461.318100       0.967286
    11467.889900       0.963749
    11474.469300       0.969054
    11481.056300       0.973475
    11487.650800       0.973475
    11494.252900       0.973475
    11500.862600       0.969054
    11507.479900       0.964633
    11514.104800       0.976127
    11520.737300       0.986737
    11527.377500       0.993811
    11534.025400       1.000000
    11540.680900       0.986737
    11547.344100       0.973475
    11554.015000       0.979664
    11560.693600       0.984969
    11567.380000       0.987622
    11574.074100       0.989390
    11580.775900       0.977011
    11587.485500       0.964633
    11594.202900       0.953139
    11600.928100       0.941645
    11607.661100       0.932803
    11614.401900       0.923077
    11621.150500       0.915119
    11627.907000       0.907162
    11634.671300       0.907162
    11641.443500       0.906278
    11648.223600       0.897436
    11655.011700       0.887710
    11661.807600       0.878868
    11668.611400       0.869142
    11675.423200       0.855880
    11682.243000       0.842617
    11689.070700       0.832891
    11695.906400       0.822281
    11702.750100       0.802829
    11709.601900       0.783378
    11716.461600       0.777188
    11723.329400       0.770999
    11730.205300       0.759505
    11737.089200       0.748011
    11743.981200       0.744474
    11750.881300       0.740053
    11757.789500       0.728559
    11764.705900       0.716180
    11771.630400       0.701149
    11778.563000       0.686118
    11785.503800       0.679045
    11792.452800       0.671088
    11799.410000       0.663130
    11806.375400       0.655172
    11813.349100       0.637489
    11820.331000       0.618921
    11827.321100       0.599469
    11834.319500       0.580018
    11841.326200       0.562334
    11848.341200       0.543767
    11855.364600       0.521662
    11862.396200       0.498674
    11869.436200       0.477454
    11876.484600       0.455349
    11883.541300       0.427940
    11890.606400       0.400531
    11897.680000       0.374005
    11904.761900       0.346596
    11911.852300       0.320071
    11918.951100       0.293546
    11926.058400       0.264368
    11933.174200       0.234306
    11940.298500       0.212202
    11947.431300       0.190097
    11954.572600       0.168877
    11961.722500       0.146773
    11968.880900       0.129973
    11976.047900       0.113174
    11983.223500       0.099912
    11990.407700       0.085765
    11997.600500       0.076039
    12004.801900       0.066313
    12012.012000       0.057471
    12019.230800       0.048630
    12026.458200       0.043324
    12033.694300       0.037135
    12040.939200       0.031830
    12048.192800       0.025641
    12055.455100       0.022989
    12062.726200       0.019452
    12070.006000       0.016799
    12077.294700       0.013263
    12084.592100       0.012378
    12091.898400       0.010610
    12099.213600       0.000000
    12106.537500       0.000000
    12113.870400       0.000000
    12121.212100       0.000000
